CTI3   

DESCRIPTOR "Argyll Calibration Target chart information 3"
ORIGINATOR "Argyll dispread"
CREATED "Mon Dec 04 12:59:55 2023"
DEVICE_CLASS "DISPLAY"
COLOR_REP "RGB_XYZ"
TARGET_INSTRUMENT "X-Rite ColorMunki"
DISPLAY_TYPE_REFRESH "YES"
INSTRUMENT_TYPE_SPECTRAL "YES"
LUMINANCE_XYZ_CDM2 "282.258090 298.549609 348.287771"
NORMALIZED_TO_Y_100 "YES"

NUMBER_OF_FIELDS 7
BEGIN_DATA_FORMAT
SAMPLE_ID RGB_R RGB_G RGB_B XYZ_X XYZ_Y XYZ_Z 
END_DATA_FORMAT

NUMBER_OF_SETS 30
BEGIN_DATA
1 40.00000 22.00000 15.00000 7.416023 6.184974 3.096895 
2 92.00000 65.00000 54.00000 53.14298 49.37158 35.65952 
3 37.00000 49.00000 67.00000 21.43693 22.86445 45.21677 
4 29.00000 37.00000 15.00000 7.479218 9.554527 3.655048 
5 54.00000 51.00000 76.00000 30.60505 29.46779 59.86906 
6 39.00000 83.00000 73.00000 40.79289 53.87881 59.80875 
7 100.0000 52.00000 0.00000 46.89309 38.80672 8.062995 
8 20.00000 32.00000 73.00000 15.11249 13.79968 52.04459 
9 97.00000 31.00000 39.00000 42.04921 29.29656 19.50307 
10 31.00000 15.00000 39.00000 6.568588 5.028549 13.91528 
11 73.00000 88.00000 0.00000 47.74289 60.56631 11.63028 
12 100.0000 73.00000 0.00000 56.71387 55.88526 11.21578 
13 3.000000 12.00000 58.00000 6.720927 5.168168 30.02881 
14 18.00000 62.00000 16.00000 14.30911 23.20435 6.452647 
15 84.00000 1.000000 17.00000 27.07691 16.55910 5.911847 
16 100.0000 92.00000 0.00000 69.14418 77.52534 15.26694 
17 90.00000 27.00000 66.00000 41.84402 28.79117 45.49015 
18 0.00000 53.00000 71.00000 19.15781 22.99630 50.58144 
19 96.00000 96.00000 93.00000 87.79447 93.45898 102.7211 
20 83.00000 83.00000 80.00000 64.18658 68.42799 73.70162 
21 66.00000 65.00000 64.00000 38.19069 40.38322 44.23722 
22 44.00000 45.00000 43.00000 17.02456 18.33592 19.70023 
23 24.00000 24.00000 24.00000 4.413559 4.667813 5.339449 
24 7.000000 7.000000 9.000000 0.519610 0.526064 0.850027 
25 0.00000 0.00000 0.00000 0.0727667 0.0722548 0.127291 
26 0.00000 0.00000 0.00000 0.0725375 0.0720148 0.127264 
27 0.00000 0.00000 0.00000 0.0735599 0.0731670 0.127317 
28 100.0000 100.0000 100.0000 94.54311 100.0000 116.6599 
29 100.0000 100.0000 100.0000 94.55343 100.0059 116.6734 
30 100.0000 100.0000 100.0000 94.54001 99.99806 116.6625 
END_DATA
